File: _posts/2021-06-29-peak-detection-for-qualitative-xrd-analysis-in-r/XRD_Ortho_P_pH7.5_DIC50 copy.txt
10	32
10.25	29
10.5	32
10.75	32
11	31
11.25	32
11.5	33
11.75	34
12	32
12.25	25
12.5	24
12.75	21
13	30
13.25	30
13.5	21
13.75	23
14	22
14.25	17
14.5	19
14.75	25
15	25
15.25	18
15.5	16
15.75	14
16	16
16.25	15
16.5	19
16.75	17
17	16
17.25	23
17.5	20
17.75	28
18	30
18.25	18
18.5	15
18.75	17
19	19
19.25	22
19.5	16
19.75	16
20	32
20.25	31
20.5	33
20.75	122
21	41
21.25	17
21.5	180
21.75	41
22	17
22.25	18
22.5	8
22.75	12
23	13
23.25	17
23.5	11
23.75	21
24	39
24.25	17
24.5	21
24.75	158
25	125
25.25	42
25.5	180
25.75	32
26	127
26.25	63
26.5	26
26.75	16
27	22
27.25	36
27.5	175
27.75	39
28	27
28.25	27
28.5	17
28.75	13
29	36
29.25	31
29.5	25
29.75	57
30	710
30.25	156
30.5	41
30.75	30
31	40
31.25	240
31.5	54
31.75	22
32	19
32.25	10
32.5	9
32.75	10
33	12
33.25	14
33.5	13
33.75	8
34	13
34.25	18
34.5	18
34.75	50
35	20
35.25	12
35.5	35
35.75	55
36	33
36.25	105
36.5	30
36.75	13
37	13
37.25	14
37.5	13
37.75	18
38	9
38.25	22
38.5	7
38.75	12
39	20
39.25	7
39.5	13
39.75	18
40	13
40.25	18
40.5	52
40.75	70
41	26
41.25	17
41.5	19
41.75	22
42	27
42.25	34
42.5	17
42.75	15
43	14
43.25	12
43.5	113
43.75	111
44	95
44.25	32
44.5	21
44.75	18
45	61
45.25	156
45.5	41
45.75	50
46	179
46.25	58
46.5	29
46.75	21
47	81
47.25	44
47.5	27
47.75	86
48	37
48.25	32
48.5	87
48.75	110
49	205
49.25	75
49.5	39
49.75	21
50	20
50.25	24
50.5	17
50.75	21
51	35
51.25	19
51.5	22
51.75	12
52	15
52.25	11
52.5	34
52.75	19
53	14
53.25	13
53.5	19
53.75	23
54	19
54.25	18
54.5	18
54.75	26
55	30
55.25	16
55.5	15
55.75	16
56	22
56.25	33
56.5	24
56.75	57
57	78
57.25	38
57.5	19
57.75	20
58	17
58.25	42
58.5	22
58.75	21
59	46
59.25	94
59.5	39
59.75	40
60	51
60.25	23
60.5	22
60.75	16
61	29
61.25	72
61.5	67
61.75	56
62	19
62.25	26
62.5	19
62.75	20
63	45
63.25	24
63.5	21
63.75	9
64	16
64.25	26
64.5	29
64.75	22
65	22
65.25	27
65.5	26
65.75	21
66	24
66.25	18
66.5	19
66.75	13
67	13
67.25	14
67.5	13
67.75	12
68	27
68.25	23
68.5	17
68.75	21
69	11
69.25	41
69.5	69
69.75	24
70	21
70.25	27
70.5	20
70.75	28
71	45
71.25	49
71.5	72
71.75	37
72	33
72.25	56
72.5	42
72.75	32
73	26
73.25	55
73.5	47
73.75	33
74	37
74.25	24
74.5	19
74.75	26
75	26
75.25	24
75.5	20
75.75	16
76	14
76.25	20
76.5	34
76.75	36
77	45
77.25	30
77.5	22
77.75	18
78	31
78.25	19
78.5	27
78.75	36
79	28
79.25	23
79.5	37
79.75	25
79.9	25