File: _posts/2021-06-29-peak-detection-for-qualitative-xrd-analysis-in-r/xrd_standards.csv
d,two_theta,intensity,h,k,l,mult,phase,id
5.3756,16.4773,27.01,1,1,0,4,Anglesite,96-900-4485
4.236,20.9546,299.41,0,2,0,2,Anglesite,96-900-4485
3.6178,24.587,214.91,1,2,0,4,Anglesite,96-900-4485
3.3323,26.7312,829.91,0,2,1,4,Anglesite,96-900-4485
3.0051,29.7045,1000,1,2,1,8,Anglesite,96-900-4485
2.6986,33.1701,462.67,0,0,2,2,Anglesite,96-900-4485
2.6165,34.2428,97.46,1,3,0,4,Anglesite,96-900-4485
2.406,37.3456,180.66,2,2,1,8,Anglesite,96-900-4485
2.276,39.564,199.74,0,2,2,4,Anglesite,96-900-4485
2.1922,41.144,62.88,2,3,0,4,Anglesite,96-900-4485
2.132,42.361,56.67,2,0,2,4,Anglesite,96-900-4485
2.118,42.6542,1.69,0,4,0,2,Anglesite,96-900-4485
2.0658,43.7865,515.15,3,1,1,8,Anglesite,96-900-4485
2.031,44.5759,354.65,2,3,1,8,Anglesite,96-900-4485
1.9716,45.9952,225.06,0,4,1,4,Anglesite,96-900-4485
1.9031,47.7535,1.59,3,2,1,8,Anglesite,96-900-4485
1.8785,48.4166,73.05,1,3,2,8,Anglesite,96-900-4485
1.7919,50.9212,183.67,3,3,0,4,Anglesite,96-900-4485
1.7387,52.5941,20.48,4,0,0,2,Anglesite,96-900-4485
1.7151,53.3744,29.33,2,4,1,8,Anglesite,96-900-4485
1.7032,53.7774,89.7,4,1,0,4,Anglesite,96-900-4485
1.7006,53.8677,79.83,3,3,1,8,Anglesite,96-900-4485
1.6559,55.443,75.17,0,2,3,4,Anglesite,96-900-4485
1.6243,56.6202,40.1,4,1,1,8,Anglesite,96-900-4485
1.6203,56.772,186.67,1,4,2,8,Anglesite,96-900-4485
1.6085,57.2264,11.33,4,2,0,4,Anglesite,96-900-4485
1.5702,58.7555,62.15,2,1,3,8,Anglesite,96-900-4485
1.5415,59.9614,17.36,4,2,1,8,Anglesite,96-900-4485
1.5026,61.6816,0.44,2,4,2,8,Anglesite,96-900-4485
1.4951,62.0248,26.29,2,2,3,8,Anglesite,96-900-4485
1.4825,62.6115,7.05,1,3,3,8,Anglesite,96-900-4485
1.4659,63.3988,93.48,2,5,1,8,Anglesite,96-900-4485
1.4403,64.661,127.29,4,1,2,8,Anglesite,96-900-4485
1.4213,65.6345,0.49,3,0,3,4,Anglesite,96-900-4485
1.4054,66.4739,37.77,1,5,2,8,Anglesite,96-900-4485
1.3907,67.2681,84.82,2,3,3,8,Anglesite,96-900-4485
1.3817,67.7672,11.9,4,2,2,8,Anglesite,96-900-4485
1.3712,68.3572,63.95,0,4,3,4,Anglesite,96-900-4485
1.366,68.6515,50.65,0,6,1,4,Anglesite,96-900-4485
1.3493,69.6229,56.3,0,0,4,2,Anglesite,96-900-4485
1.347,69.7624,43.05,5,0,1,4,Anglesite,96-900-4485
1.3439,69.9455,0.02,4,4,0,4,Anglesite,96-900-4485
1.3303,70.7688,17.23,5,1,1,8,Anglesite,96-900-4485
1.326,71.0279,28.25,3,5,1,8,Anglesite,96-900-4485
1.3087,72.1136,1.14,1,1,4,8,Anglesite,96-900-4485
1.3041,72.4116,24.63,4,4,1,8,Anglesite,96-900-4485
1.2857,73.6167,16.5,0,2,4,4,Anglesite,96-900-4485
1.2756,74.2951,13.4,2,4,3,8,Anglesite,96-900-4485
1.2696,74.7073,33.04,3,3,3,8,Anglesite,96-900-4485
1.2579,75.5188,17.25,2,0,4,4,Anglesite,96-900-4485
1.2478,76.2405,11.76,5,3,0,4,Anglesite,96-900-4485
1.2369,77.0392,19.83,4,1,3,8,Anglesite,96-900-4485
1.2234,78.0436,0.01,5,1,2,8,Anglesite,96-900-4485
1.2158,78.6321,10.37,5,3,1,8,Anglesite,96-900-4485
1.2135,78.8074,1.89,4,5,0,4,Anglesite,96-900-4485
1.2059,79.4014,3.87,2,2,4,8,Anglesite,96-900-4485
1.1993,79.9296,13.91,1,3,4,8,Anglesite,96-900-4485
1.1924,80.4852,0.53,1,7,0,4,Anglesite,96-900-4485
1.1839,81.1777,39.99,4,5,1,8,Anglesite,96-900-4485
1.1772,81.7385,7.92,2,6,2,8,Anglesite,96-900-4485
1.1643,82.8444,8.83,1,7,1,8,Anglesite,96-900-4485
1.1625,82.9996,33.25,2,5,3,8,Anglesite,96-900-4485
1.1553,83.6352,6.19,3,1,4,8,Anglesite,96-900-4485
1.1485,84.2467,0.18,6,1,0,4,Anglesite,96-900-4485
1.143,84.7386,26.31,2,7,0,4,Anglesite,96-900-4485
1.1366,85.3326,0.02,5,4,1,8,Anglesite,96-900-4485
1.1243,86.488,0.41,3,2,4,8,Anglesite,96-900-4485
1.1231,86.6106,65.91,1,4,4,8,Anglesite,96-900-4485
1.118,87.0971,10.7,6,2,0,4,Anglesite,96-900-4485
1.1067,88.2145,0.55,4,5,2,8,Anglesite,96-900-4485
1.1004,88.8532,20.07,5,0,3,4,Anglesite,96-900-4485
1.0961,89.299,2.38,4,6,0,4,Anglesite,96-900-4485
1.0913,89.8006,6.84,5,1,3,8,Anglesite,96-900-4485
1.0889,90.0454,15.62,3,5,3,8,Anglesite,96-900-4485
1.0779,91.2269,51.71,3,3,4,8,Anglesite,96-900-4485
1.0751,91.5298,4.19,5,5,0,4,Anglesite,96-900-4485
1.0729,91.7747,3.11,3,7,0,4,Anglesite,96-900-4485
1.0678,92.3407,46.4,5,4,2,8,Anglesite,96-900-4485
1.066,92.5416,6.28,4,0,4,4,Anglesite,96-900-4485
1.0651,92.6464,26.25,6,0,2,4,Anglesite,96-900-4485
1.0583,93.4116,8.76,1,1,5,8,Anglesite,96-900-4485
1.0576,93.4902,32.01,4,1,4,8,Anglesite,96-900-4485
1.0544,93.8666,5.06,5,5,1,8,Anglesite,96-900-4485
1.0523,94.112,36.99,3,7,1,8,Anglesite,96-900-4485
1.0469,94.7442,0.05,1,8,0,4,Anglesite,96-900-4485
1.0436,95.1455,9.81,1,5,4,8,Anglesite,96-900-4485
1.0344,96.264,26.52,1,2,5,8,Anglesite,96-900-4485
1.0329,96.4483,20.13,6,2,2,8,Anglesite,96-900-4485
1.0253,97.3998,8.13,5,3,3,8,Anglesite,96-900-4485
1.0216,97.883,1.17,3,4,4,8,Anglesite,96-900-4485
1.0155,98.6684,3.41,4,6,2,8,Anglesite,96-900-4485
1.01,99.3977,2.69,2,5,4,8,Anglesite,96-900-4485
4.9811,17.7924,0.94,0,1,1,4,Cerussite,96-901-3804
4.2496,20.8868,72.25,0,2,0,2,Cerussite,96-901-3804
3.4957,25.4601,469.21,0,2,1,4,Cerussite,96-901-3804
2.8982,30.8276,3.24,1,2,1,8,Cerussite,96-901-3804
2.6438,33.8786,12.42,1,0,2,4,Cerussite,96-901-3804
2.573,34.8407,4.2,0,3,1,4,Cerussite,96-901-3804
2.4905,36.033,86.37,0,2,2,4,Cerussite,96-901-3804
2.3046,39.0523,0.02,1,3,1,8,Cerussite,96-901-3804
2.2448,40.1369,0.03,1,2,2,8,Cerussite,96-901-3804
2.1248,42.511,22.26,0,4,0,2,Cerussite,96-901-3804
2.0819,43.4315,273.53,2,2,1,8,Cerussite,96-901-3804
1.9921,45.4964,0.36,0,1,3,4,Cerussite,96-901-3804
1.9329,46.9712,236.72,1,3,2,8,Cerussite,96-901-3804
1.8726,48.58,1.56,1,4,1,8,Cerussite,96-901-3804
1.8458,49.3325,82.17,0,2,3,4,Cerussite,96-901-3804
1.7957,50.8028,42.14,2,2,2,8,Cerussite,96-901-3804
1.7388,52.5913,0.82,1,2,3,8,Cerussite,96-901-3804
1.6604,55.2827,0,0,3,3,4,Cerussite,96-901-3804
1.6431,55.9124,14.41,2,4,0,4,Cerussite,96-901-3804
1.6323,56.3153,87.52,3,1,1,8,Cerussite,96-901-3804
1.6152,56.9671,14.81,1,5,0,4,Cerussite,96-901-3804
1.5812,58.3078,0.08,1,3,3,8,Cerussite,96-901-3804
1.5622,59.0882,72.67,1,5,1,8,Cerussite,96-901-3804
1.5369,60.1608,19.96,0,0,4,2,Cerussite,96-901-3804
1.5061,61.5205,0.23,3,0,2,4,Cerussite,96-901-3804
1.4875,62.3749,0.11,0,5,2,4,Cerussite,96-901-3804
1.4751,62.9609,40.84,3,3,0,4,Cerussite,96-901-3804
1.4735,63.0382,0,1,0,4,4,Cerussite,96-901-3804
1.4491,64.2241,20.48,2,4,2,8,Cerussite,96-901-3804
1.4344,64.9635,0.27,3,3,1,8,Cerussite,96-901-3804
1.4196,65.724,0.22,3,2,2,8,Cerussite,96-901-3804
1.4165,65.8843,18.29,0,6,0,2,Cerussite,96-901-3804
1.3922,67.1896,0.45,1,2,4,8,Cerussite,96-901-3804
1.3804,67.8409,0,0,6,1,4,Cerussite,96-901-3804
1.3339,70.5486,0.03,1,6,1,8,Cerussite,96-901-3804
1.3219,71.2838,28.35,2,0,4,4,Cerussite,96-901-3804
1.3083,72.1411,0.08,0,5,3,4,Cerussite,96-901-3804
1.3062,72.2748,0.03,2,1,4,8,Cerussite,96-901-3804
1.2958,72.9474,17.95,4,0,0,2,Cerussite,96-901-3804
1.2865,73.5623,26.38,0,6,2,4,Cerussite,96-901-3804
1.2685,74.7814,41.59,1,5,3,8,Cerussite,96-901-3804
1.2614,75.2784,0.22,3,2,3,8,Cerussite,96-901-3804
1.2486,76.1842,0.5,1,6,2,8,Cerussite,96-901-3804
1.243,76.5914,31.16,2,6,0,4,Cerussite,96-901-3804
1.2287,77.6436,0.01,3,4,2,8,Cerussite,96-901-3804
1.2168,78.5495,0.24,0,1,5,4,Cerussite,96-901-3804
1.2117,78.9453,3.85,3,5,0,4,Cerussite,96-901-3804
1.1979,80.0362,0.59,2,3,4,8,Cerussite,96-901-3804
1.194,80.3493,16.61,4,0,2,4,Cerussite,96-901-3804
1.1888,80.7732,27.89,3,5,1,8,Cerussite,96-901-3804
1.1824,81.3027,0.26,4,1,2,8,Cerussite,96-901-3804
1.1811,81.4173,12.76,0,2,5,4,Cerussite,96-901-3804
1.1652,82.7636,0.14,0,6,3,4,Cerussite,96-901-3804
1.1573,83.4545,0.06,4,3,1,8,Cerussite,96-901-3804
1.1515,83.9691,0.17,1,2,5,8,Cerussite,96-901-3804
1.1483,84.2596,0.11,3,0,4,4,Cerussite,96-901-3804
1.138,85.2049,8.13,3,1,4,8,Cerussite,96-901-3804
1.1293,86.0202,0.03,0,7,2,4,Cerussite,96-901-3804
1.1273,86.2078,9.97,3,5,2,8,Cerussite,96-901-3804
1.1218,86.7334,0.15,3,4,3,8,Cerussite,96-901-3804
1.1085,88.0339,0.03,3,2,4,8,Cerussite,96-901-3804
1.1034,88.5541,7.23,1,7,2,8,Cerussite,96-901-3804
1.1015,88.7489,0.92,2,1,5,8,Cerussite,96-901-3804
1.0888,90.0576,23.91,4,4,1,8,Cerussite,96-901-3804
1.0823,90.7492,0,2,7,1,8,Cerussite,96-901-3804
1.0747,91.573,22.21,2,2,5,8,Cerussite,96-901-3804
1.0642,92.7457,11.29,0,4,5,4,Cerussite,96-901-3804
1.0624,92.9469,2.24,0,8,0,2,Cerussite,96-901-3804
1.0469,94.7503,10.1,0,8,1,4,Cerussite,96-901-3804
1.0435,95.1537,0.45,2,5,4,8,Cerussite,96-901-3804
1.0424,95.283,0.08,1,4,5,8,Cerussite,96-901-3804
1.0409,95.4635,5.7,4,4,2,8,Cerussite,96-901-3804
1.0342,96.2918,0.17,2,3,5,8,Cerussite,96-901-3804
1.029,96.934,1.51,5,1,0,4,Cerussite,96-901-3804
1.0246,97.4969,8.07,0,0,6,2,Cerussite,96-901-3804
1.0215,97.8872,0,4,3,3,8,Cerussite,96-901-3804
1.0172,98.4473,0.06,0,1,6,4,Cerussite,96-901-3804
1.0149,98.7502,17.32,5,1,1,8,Cerussite,96-901-3804
1.0102,99.3713,0.09,3,4,4,8,Cerussite,96-901-3804
7.9007,11.1902,25.97,0,0,3,2,Hydrocerussite,96-201-2741
4.4624,19.8806,273.67,1,0,1,6,Hydrocerussite,96-201-2741
4.2425,20.9222,270.69,1,0,2,6,Hydrocerussite,96-201-2741
3.9503,22.489,0.36,0,0,6,2,Hydrocerussite,96-201-2741
3.6056,24.6713,748.59,1,0,4,6,Hydrocerussite,96-201-2741
3.2802,27.1637,1000,1,0,5,6,Hydrocerussite,96-201-2741
2.715,32.9645,87.32,1,0,7,6,Hydrocerussite,96-201-2741
2.6336,34.0146,341.11,0,0,9,2,Hydrocerussite,96-201-2741
2.6233,34.1524,538.6,1,1,0,6,Hydrocerussite,96-201-2741
2.4896,36.0469,92.78,1,1,3,12,Hydrocerussite,96-201-2741
2.4817,36.1649,0.35,1,0,8,6,Hydrocerussite,96-201-2741
2.2614,39.8298,13.58,2,0,1,6,Hydrocerussite,96-201-2741
2.2312,40.3933,243.46,2,0,2,6,Hydrocerussite,96-201-2741
2.1853,41.2795,0.58,1,1,6,12,Hydrocerussite,96-201-2741
2.1212,42.5858,148.6,2,0,4,6,Hydrocerussite,96-201-2741
2.1015,43.0066,181.39,1,0,10,6,Hydrocerussite,96-201-2741
2.0487,44.1718,182.52,2,0,5,6,Hydrocerussite,96-201-2741
1.9752,45.908,3.81,0,0,12,2,Hydrocerussite,96-201-2741
1.9469,46.6137,16.72,1,0,11,6,Hydrocerussite,96-201-2741
1.8865,48.1983,127,2,0,7,6,Hydrocerussite,96-201-2741
1.8586,48.9709,293.01,1,1,9,12,Hydrocerussite,96-201-2741
1.8028,50.5897,0.4,2,0,8,6,Hydrocerussite,96-201-2741
1.7128,53.4518,3.98,2,1,1,12,Hydrocerussite,96-201-2741
1.6996,53.9025,163.95,2,1,2,12,Hydrocerussite,96-201-2741
1.6921,54.1604,31.97,1,0,13,6,Hydrocerussite,96-201-2741
1.6494,55.6801,37.03,2,1,4,12,Hydrocerussite,96-201-2741
1.6401,56.0256,25.21,2,0,10,6,Hydrocerussite,96-201-2741
1.6146,56.989,72.72,2,1,5,12,Hydrocerussite,96-201-2741
1.5864,58.097,133.21,1,0,14,6,Hydrocerussite,96-201-2741
1.5801,58.3515,3.56,0,0,15,2,Hydrocerussite,96-201-2741
1.5779,58.4421,69.96,1,1,12,12,Hydrocerussite,96-201-2741
1.5634,59.0385,38.76,2,0,11,6,Hydrocerussite,96-201-2741
1.5316,60.3894,131.84,2,1,7,12,Hydrocerussite,96-201-2741
1.5145,61.1419,40.78,3,0,0,6,Hydrocerussite,96-201-2741
1.4875,62.3783,60.08,3,0,3,6,Hydrocerussite,96-201-2741
1.4858,62.4568,12.94,2,1,8,12,Hydrocerussite,96-201-2741
1.4219,65.6024,11.22,2,0,13,6,Hydrocerussite,96-201-2741
1.4142,66.0088,12.32,3,0,6,6,Hydrocerussite,96-201-2741
1.4084,66.3131,9.61,1,0,16,6,Hydrocerussite,96-201-2741
1.3907,67.2712,30.42,2,1,10,12,Hydrocerussite,96-201-2741
1.3575,69.1434,42.42,2,0,14,6,Hydrocerussite,96-201-2741
1.3535,69.3747,6.48,1,1,15,12,Hydrocerussite,96-201-2741
1.343,70.0007,39.78,2,1,11,12,Hydrocerussite,96-201-2741
1.3329,70.608,3.26,1,0,17,6,Hydrocerussite,96-201-2741
1.3168,71.6043,14.68,0,0,18,2,Hydrocerussite,96-201-2741
1.3129,71.8481,37.4,3,0,9,6,Hydrocerussite,96-201-2741
1.3116,71.9293,33.87,2,2,0,6,Hydrocerussite,96-201-2741
1.2939,73.0715,39.16,2,2,3,12,Hydrocerussite,96-201-2741
1.2584,75.4873,0.14,3,1,1,12,Hydrocerussite,96-201-2741
1.2531,75.8621,64.38,3,1,2,12,Hydrocerussite,96-201-2741
1.2501,76.0773,2.33,2,1,13,12,Hydrocerussite,96-201-2741
1.2448,76.4589,14.16,2,2,6,12,Hydrocerussite,96-201-2741
1.2409,76.745,17.46,2,0,16,6,Hydrocerussite,96-201-2741
1.2326,77.3551,8.91,3,1,4,12,Hydrocerussite,96-201-2741
1.2179,78.4691,25.82,3,1,5,12,Hydrocerussite,96-201-2741
1.2056,79.4218,35.22,2,1,14,12,Hydrocerussite,96-201-2741
1.203,79.634,40.53,1,0,19,6,Hydrocerussite,96-201-2741
1.2019,79.7202,51.55,3,0,12,6,Hydrocerussite,96-201-2741
1.1883,80.8177,3,2,0,17,6,Hydrocerussite,96-201-2741
1.181,81.4195,59.63,3,1,7,12,Hydrocerussite,96-201-2741
1.1768,81.7712,28.41,1,1,18,12,Hydrocerussite,96-201-2741
1.1741,82.0051,32.94,2,2,9,12,Hydrocerussite,96-201-2741
1.1596,83.2515,7.41,3,1,8,12,Hydrocerussite,96-201-2741
1.1467,84.4018,0.01,1,0,20,6,Hydrocerussite,96-201-2741
1.1346,85.5183,0,4,0,1,6,Hydrocerussite,96-201-2741
1.1307,85.8824,27.95,4,0,2,6,Hydrocerussite,96-201-2741
1.1287,86.0764,1.22,0,0,21,2,Hydrocerussite,96-201-2741
1.1217,86.7419,35.82,2,1,16,12,Hydrocerussite,96-201-2741
1.1156,87.3374,4.72,4,0,4,6,Hydrocerussite,96-201-2741
1.1127,87.6236,4.37,3,1,10,12,Hydrocerussite,96-201-2741
1.1046,88.4274,8.13,4,0,5,6,Hydrocerussite,96-201-2741
1.0935,89.5713,11.98,2,0,19,6,Hydrocerussite,96-201-2741
1.0934,89.5789,0.09,3,0,15,6,Hydrocerussite,96-201-2741
1.0927,89.6561,31.84,2,2,12,12,Hydrocerussite,96-201-2741
1.0878,90.1659,23.58,3,1,11,12,Hydrocerussite,96-201-2741
1.0824,90.7378,17.16,2,1,17,12,Hydrocerussite,96-201-2741
1.0769,91.3325,23.81,4,0,7,6,Hydrocerussite,96-201-2741
1.0606,93.1495,2.69,4,0,8,6,Hydrocerussite,96-201-2741
1.0507,94.2956,1.22,2,0,20,6,Hydrocerussite,96-201-2741
1.0483,94.5823,0.59,1,0,22,6,Hydrocerussite,96-201-2741
1.0414,95.4117,0.06,3,2,1,12,Hydrocerussite,96-201-2741
1.0384,95.7765,23.52,3,2,2,12,Hydrocerussite,96-201-2741
1.0368,95.9711,22.95,1,1,21,12,Hydrocerussite,96-201-2741
1.0367,95.9863,0.03,3,1,13,12,Hydrocerussite,96-201-2741
1.0266,97.2384,8.99,3,2,4,12,Hydrocerussite,96-201-2741
1.0243,97.5267,1.84,4,0,10,6,Hydrocerussite,96-201-2741
1.0181,98.3378,21.18,3,2,5,12,Hydrocerussite,96-201-2741
8.5433,10.346,15.4,1,0,0,6,Pb10(PO4)6O,96-810-3821
4.1095,21.6073,428.7,1,1,1,12,Pb10(PO4)6O,96-810-3821
3.2291,27.602,472.73,2,1,0,6,Pb10(PO4)6O,96-810-3821
2.8033,31.8979,14.33,2,0,2,12,Pb10(PO4)6O,96-810-3821
2.3789,37.7862,0.07,0,1,3,12,Pb10(PO4)6O,96-810-3821
2.2575,39.9022,3.53,3,1,1,12,Pb10(PO4)6O,96-810-3821
2.0547,44.0347,362.31,2,2,2,12,Pb10(PO4)6O,96-810-3821
1.96,46.2844,104.55,3,2,0,6,Pb10(PO4)6O,96-810-3821
1.8577,48.9962,129.58,0,0,4,2,Pb10(PO4)6O,96-810-3821
1.7476,52.3053,0.29,2,2,3,12,Pb10(PO4)6O,96-810-3821
1.7087,53.5924,0.54,5,0,0,6,Pb10(PO4)6O,96-810-3821
1.6442,55.8745,7.19,3,3,0,6,Pb10(PO4)6O,96-810-3821
1.6053,57.3494,71.95,3,3,1,12,Pb10(PO4)6O,96-810-3821
1.537,60.156,98.81,3,2,3,12,Pb10(PO4)6O,96-810-3821
1.4895,62.2818,1.59,4,1,3,12,Pb10(PO4)6O,96-810-3821
1.4619,63.5932,0.35,3,1,4,12,Pb10(PO4)6O,96-810-3821
1.4065,66.4164,0.5,5,0,3,12,Pb10(PO4)6O,96-810-3821
1.3984,66.8473,0,6,0,1,12,Pb10(PO4)6O,96-810-3821
1.3526,69.4325,0.9,4,2,3,12,Pb10(PO4)6O,96-810-3821
1.3296,70.8099,61.14,6,0,2,12,Pb10(PO4)6O,96-810-3821
1.3044,72.3902,50.37,5,1,3,12,Pb10(PO4)6O,96-810-3821
1.2729,74.4807,0.67,2,2,5,12,Pb10(PO4)6O,96-810-3821
1.2344,77.2182,0.14,6,0,3,12,Pb10(PO4)6O,96-810-3821
1.2256,77.8785,19.11,0,1,6,12,Pb10(PO4)6O,96-810-3821
1.2186,78.4129,56.43,4,2,4,12,Pb10(PO4)6O,96-810-3821
1.1975,80.0691,40.82,5,2,3,12,Pb10(PO4)6O,96-810-3821
1.183,81.2525,37.13,5,1,4,12,Pb10(PO4)6O,96-810-3821
1.1595,83.2615,63.52,7,0,2,12,Pb10(PO4)6O,96-810-3821
1.1316,85.8,34.66,7,1,0,6,Pb10(PO4)6O,96-810-3821
1.1203,86.8743,1.06,4,3,4,12,Pb10(PO4)6O,96-810-3821
1.1025,88.6432,18.42,3,3,5,12,Pb10(PO4)6O,96-810-3821
1.0939,89.53,0.37,5,4,0,6,Pb10(PO4)6O,96-810-3821
1.0764,91.3933,2.42,6,3,0,6,Pb10(PO4)6O,96-810-3821
1.0675,92.3703,28.54,5,1,5,12,Pb10(PO4)6O,96-810-3821
1.0493,94.4604,30.7,5,4,2,12,Pb10(PO4)6O,96-810-3821
1.0338,96.3319,59.97,6,3,2,12,Pb10(PO4)6O,96-810-3821
1.0293,96.9037,0.22,7,1,3,12,Pb10(PO4)6O,96-810-3821
1.0208,97.9849,0.58,4,3,5,12,Pb10(PO4)6O,96-810-3821
14.7898,5.971,0.52,1,0,0,2,Pb5O4(CrO4),96-153-4030
7.2238,12.2425,0.1,1,1,-1,4,Pb5O4(CrO4),96-153-4030
5.7902,15.2901,38.26,0,0,2,2,Pb5O4(CrO4),96-153-4030
5.4232,16.3314,0.36,-1,0,2,2,Pb5O4(CrO4),96-153-4030
4.9299,17.9785,0.18,3,0,0,2,Pb5O4(CrO4),96-153-4030
4.8718,18.1947,2,1,1,2,4,Pb5O4(CrO4),96-153-4030
4.5216,19.6176,4.61,2,0,2,2,Pb5O4(CrO4),96-153-4030
4.2456,20.9067,0.36,2,2,1,4,Pb5O4(CrO4),96-153-4030
3.9735,22.3561,3.38,-1,2,2,4,Pb5O4(CrO4),96-153-4030
3.7642,23.6169,0.12,1,3,0,4,Pb5O4(CrO4),96-153-4030
3.665,24.2652,0.51,0,1,3,4,Pb5O4(CrO4),96-153-4030
3.5844,24.8198,0.07,-1,3,1,4,Pb5O4(CrO4),96-153-4030
3.5683,24.9332,0.81,3,2,1,4,Pb5O4(CrO4),96-153-4030
3.4443,25.846,7.16,2,3,0,4,Pb5O4(CrO4),96-153-4030
3.3053,26.9538,16.39,-2,1,3,4,Pb5O4(CrO4),96-153-4030
3.22,27.6816,27.47,0,2,3,4,Pb5O4(CrO4),96-153-4030
3.1496,28.3125,0.22,1,3,2,4,Pb5O4(CrO4),96-153-4030
3.1237,28.5522,0.87,4,2,0,4,Pb5O4(CrO4),96-153-4030
3.027,29.4855,10.9,4,2,-1,4,Pb5O4(CrO4),96-153-4030
2.9678,30.0873,0.06,-2,2,3,4,Pb5O4(CrO4),96-153-4030
2.9499,30.274,16.98,2,3,2,4,Pb5O4(CrO4),96-153-4030
2.9187,30.6053,0.13,3,1,3,4,Pb5O4(CrO4),96-153-4030
2.8504,31.3579,0.37,-1,0,4,2,Pb5O4(CrO4),96-153-4030
2.7942,32.0053,1.57,5,1,-1,4,Pb5O4(CrO4),96-153-4030
2.769,32.3034,1.53,-1,1,4,4,Pb5O4(CrO4),96-153-4030
2.7328,32.7445,1.21,4,2,2,4,Pb5O4(CrO4),96-153-4030
2.7116,33.007,3.61,-2,0,4,2,Pb5O4(CrO4),96-153-4030
2.6807,33.3982,572.32,4,3,0,4,Pb5O4(CrO4),96-153-4030
2.6473,33.8324,7.63,2,4,-1,4,Pb5O4(CrO4),96-153-4030
2.6243,34.1378,30.1,4,1,-3,4,Pb5O4(CrO4),96-153-4030
2.6067,34.3761,4.3,0,4,2,4,Pb5O4(CrO4),96-153-4030
2.5821,34.7138,18.58,4,1,3,4,Pb5O4(CrO4),96-153-4030
2.5638,34.9702,1.18,1,4,2,4,Pb5O4(CrO4),96-153-4030
2.5481,35.192,0.68,1,2,4,4,Pb5O4(CrO4),96-153-4030
[...]
1.8318,49.7345,0.12,-1,6,2,4,Pb5O4(CrO4),96-153-4030
1.8222,50.0135,2.17,-1,2,6,4,Pb5O4(CrO4),96-153-4030
1.8177,50.1464,1.87,0,5,4,4,Pb5O4(CrO4),96-153-4030
1.8144,50.2444,0.24,0,4,5,4,Pb5O4(CrO4),96-153-4030
1.8077,50.4419,0.21,-3,0,6,2,Pb5O4(CrO4),96-153-4030
1.8038,50.5598,0.1,-1,4,5,4,Pb5O4(CrO4),96-153-4030
1.798,50.7352,0.81,1,4,5,4,Pb5O4(CrO4),96-153-4030
1.7876,51.0506,6.11,2,6,2,4,Pb5O4(CrO4),96-153-4030
1.7868,51.0757,0.02,3,6,1,4,Pb5O4(CrO4),96-153-4030
1.7782,51.3415,0.43,7,2,-3,4,Pb5O4(CrO4),96-153-4030
1.7699,51.5981,1.11,8,0,-2,2,Pb5O4(CrO4),96-153-4030
1.7644,51.7707,4.33,4,5,-3,4,Pb5O4(CrO4),96-153-4030
1.7605,51.8939,0,7,3,2,4,Pb5O4(CrO4),96-153-4030
1.7528,52.1385,0.65,5,5,-2,4,Pb5O4(CrO4),96-153-4030
1.7467,52.3371,0,8,2,-1,4,Pb5O4(CrO4),96-153-4030
1.7378,52.6245,0.96,0,6,3,4,Pb5O4(CrO4),96-153-4030
1.7276,52.9578,0.25,5,2,5,4,Pb5O4(CrO4),96-153-4030
1.7244,53.0656,0.64,1,6,3,4,Pb5O4(CrO4),96-153-4030
1.7205,53.1952,0.01,-1,3,6,4,Pb5O4(CrO4),96-153-4030
1.7102,53.5416,0.05,-3,4,5,4,Pb5O4(CrO4),96-153-4030
1.7023,53.8076,0.27,7,1,-4,4,Pb5O4(CrO4),96-153-4030
1.6996,53.9026,1.41,3,5,4,4,Pb5O4(CrO4),96-153-4030
1.6954,54.046,0.14,3,4,5,4,Pb5O4(CrO4),96-153-4030
1.693,54.1303,0.07,7,0,4,2,Pb5O4(CrO4),96-153-4030
1.6847,54.4187,3.78,6,1,-5,4,Pb5O4(CrO4),96-153-4030
1.6803,54.5721,0.34,6,5,-1,4,Pb5O4(CrO4),96-153-4030
1.678,54.6512,3.1,2,3,6,4,Pb5O4(CrO4),96-153-4030
1.6636,55.165,0.26,7,3,3,4,Pb5O4(CrO4),96-153-4030
1.6576,55.3814,0.08,1,7,0,4,Pb5O4(CrO4),96-153-4030
1.6526,55.5636,0.12,-4,2,6,4,Pb5O4(CrO4),96-153-4030
1.649,55.6956,0.06,5,5,3,4,Pb5O4(CrO4),96-153-4030
1.6433,55.906,0.33,9,0,0,2,Pb5O4(CrO4),96-153-4030
1.6402,56.0212,0.04,5,3,5,4,Pb5O4(CrO4),96-153-4030
1.638,56.1044,1.11,0,1,7,4,Pb5O4(CrO4),96-153-4030
1.635,56.215,0.47,3,6,3,4,Pb5O4(CrO4),96-153-4030
1.6314,56.3495,0.03,4,2,6,4,Pb5O4(CrO4),96-153-4030
1.6273,56.507,3.08,2,7,0,4,Pb5O4(CrO4),96-153-4030
1.6244,56.6169,0,4,5,4,4,Pb5O4(CrO4),96-153-4030
1.6152,56.9664,0,9,1,-1,4,Pb5O4(CrO4),96-153-4030
1.6123,57.0806,0.06,2,7,-1,4,Pb5O4(CrO4),96-153-4030
2.7963,31.9805,926.24,1,0,1,8,PbO2,96-900-7544
1.8547,49.0781,650.6,2,1,1,16,PbO2,96-900-7544
1.5564,59.3275,0.55,2,2,1,8,PbO2,96-900-7544
1.3981,66.864,91.48,2,0,2,8,PbO2,96-900-7544
1.2392,76.8676,35.69,4,0,0,4,PbO2,96-900-7544
1.1503,84.0814,100.83,3,1,2,16,PbO2,96-900-7544
1.1007,88.8279,43.61,0,1,3,8,PbO2,96-900-7544
1.0059,99.9473,79.09,2,1,3,16,PbO2,96-900-7544
8.5442,10.345,5,NA,NA,NA,NA,Hydroxypyromorphite,00-086-0236
5.60491,15.7987,11,NA,NA,NA,NA,Hydroxypyromorphite,00-086-0236
4.93299,17.9673,54,NA,NA,NA,NA,Hydroxypyromorphite,00-086-0236
4.2721,20.7755,260.2,NA,NA,NA,NA,Hydroxypyromorphite,00-086-0236
4.109,21.6099,259.2,NA,NA,NA,NA,Hydroxypyromorphite,00-086-0236
3.713,23.9471,61,NA,NA,NA,NA,Hydroxypyromorphite,00-086-0236
3.713,23.9471,61,NA,NA,NA,NA,Hydroxypyromorphite,00-086-0236
3.40534,26.1473,261.2,NA,NA,NA,NA,Hydroxypyromorphite,00-086-0236
3.22941,27.5991,287.2,NA,NA,NA,NA,Hydroxypyromorphite,00-086-0236
2.96656,30.0999,1000,NA,NA,NA,NA,Hydroxypyromorphite,00-086-0236
2.96656,30.0999,1000,NA,NA,NA,NA,Hydroxypyromorphite,00-086-0236
2.84806,31.3838,311.3,NA,NA,NA,NA,Hydroxypyromorphite,00-086-0236
2.80245,31.9081,8,NA,NA,NA,NA,Hydroxypyromorphite,00-086-0236
2.65919,33.6769,3,NA,NA,NA,NA,Hydroxypyromorphite,00-086-0236
2.46649,36.3965,12,NA,NA,NA,NA,Hydroxypyromorphite,00-086-0236
2.4367,36.8573,3,NA,NA,NA,NA,Hydroxypyromorphite,00-086-0236
2.37756,37.8085,2,NA,NA,NA,NA,Hydroxypyromorphite,00-086-0236
2.36974,37.938,7,NA,NA,NA,NA,Hydroxypyromorphite,00-086-0236
2.34075,38.4261,3,NA,NA,NA,NA,Hydroxypyromorphite,00-086-0236
2.25981,39.8596,35,NA,NA,NA,NA,Hydroxypyromorphite,00-086-0236
2.25981,39.8596,35,NA,NA,NA,NA,Hydroxypyromorphite,00-086-0236
2.21241,40.7511,82,NA,NA,NA,NA,Hydroxypyromorphite,00-086-0236
2.13605,42.2764,35,NA,NA,NA,NA,Hydroxypyromorphite,00-086-0236
2.05451,44.0401,202.2,NA,NA,NA,NA,Hydroxypyromorphite,00-086-0236
2.05451,44.0401,202.2,NA,NA,NA,NA,Hydroxypyromorphite,00-086-0236
1.99757,45.3642,111.1,NA,NA,NA,NA,Hydroxypyromorphite,00-086-0236
1.96459,46.1694,178.1,NA,NA,NA,NA,Hydroxypyromorphite,00-086-0236
1.96018,46.2793,147.1,NA,NA,NA,NA,Hydroxypyromorphite,00-086-0236
1.89525,47.9624,116.1,NA,NA,NA,NA,Hydroxypyromorphite,00-086-0236
1.8645,48.8044,126.1,NA,NA,NA,NA,Hydroxypyromorphite,00-086-0236
1.8565,49.0286,88,NA,NA,NA,NA,Hydroxypyromorphite,00-086-0236
1.85152,49.1692,204.2,NA,NA,NA,NA,Hydroxypyromorphite,00-086-0236
1.81417,50.2509,1,NA,NA,NA,NA,Hydroxypyromorphite,00-086-0236
1.80837,50.4233,1,NA,NA,NA,NA,Hydroxypyromorphite,00-086-0236
1.74719,52.3199,1,NA,NA,NA,NA,Hydroxypyromorphite,00-086-0236
1.73753,52.6331,8,NA,NA,NA,NA,Hydroxypyromorphite,00-086-0236
1.73344,52.7668,6,NA,NA,NA,NA,Hydroxypyromorphite,00-086-0236
1.71177,53.4876,2,NA,NA,NA,NA,Hydroxypyromorphite,00-086-0236
1.70267,53.7964,23,NA,NA,NA,NA,Hydroxypyromorphite,00-086-0236
1.66622,55.0717,14,NA,NA,NA,NA,Hydroxypyromorphite,00-086-0236
1.64433,55.8685,5,NA,NA,NA,NA,Hydroxypyromorphite,00-086-0236
1.6147,56.9863,33,NA,NA,NA,NA,Hydroxypyromorphite,00-086-0236
1.60949,57.1878,64,NA,NA,NA,NA,Hydroxypyromorphite,00-086-0236
1.60545,57.345,60,NA,NA,NA,NA,Hydroxypyromorphite,00-086-0236
1.57783,58.4449,1,NA,NA,NA,NA,Hydroxypyromorphite,00-086-0236
1.55526,59.3773,57,NA,NA,NA,NA,Hydroxypyromorphite,00-086-0236
1.55232,59.501,54,NA,NA,NA,NA,Hydroxypyromorphite,00-086-0236
1.53671,60.1675,49,NA,NA,NA,NA,Hydroxypyromorphite,00-086-0236
1.53458,60.2596,29,NA,NA,NA,NA,Hydroxypyromorphite,00-086-0236
1.50348,61.6402,78,NA,NA,NA,NA,Hydroxypyromorphite,00-086-0236
1.50348,61.6402,78,NA,NA,NA,NA,Hydroxypyromorphite,00-086-0236
1.48929,62.2927,1,NA,NA,NA,NA,Hydroxypyromorphite,00-086-0236
1.48328,62.5735,3,NA,NA,NA,NA,Hydroxypyromorphite,00-086-0236
1.48073,62.6934,2,NA,NA,NA,NA,Hydroxypyromorphite,00-086-0236
1.46326,63.5287,1,NA,NA,NA,NA,Hydroxypyromorphite,00-086-0236
1.42213,65.5923,9,NA,NA,NA,NA,Hydroxypyromorphite,00-086-0236
1.41823,65.7954,5,NA,NA,NA,NA,Hydroxypyromorphite,00-086-0236
1.40122,66.6976,12,NA,NA,NA,NA,Hydroxypyromorphite,00-086-0236
1.39854,66.8422,6,NA,NA,NA,NA,Hydroxypyromorphite,00-086-0236
1.38017,67.8516,2,NA,NA,NA,NA,Hydroxypyromorphite,00-086-0236
1.36966,68.4441,12,NA,NA,NA,NA,Hydroxypyromorphite,00-086-0236
1.34933,69.6226,36,NA,NA,NA,NA,Hydroxypyromorphite,00-086-0236
1.3479,69.7071,28,NA,NA,NA,NA,Hydroxypyromorphite,00-086-0236
1.34552,69.8483,42,NA,NA,NA,NA,Hydroxypyromorphite,00-086-0236
1.32959,70.8098,25,NA,NA,NA,NA,Hydroxypyromorphite,00-086-0236
1.31556,71.6808,56,NA,NA,NA,NA,Hydroxypyromorphite,00-086-0236
1.31379,71.7923,25,NA,NA,NA,NA,Hydroxypyromorphite,00-086-0236
1.30428,72.3982,25,NA,NA,NA,NA,Hydroxypyromorphite,00-086-0236
1.28378,73.7433,64,NA,NA,NA,NA,Hydroxypyromorphite,00-086-0236
1.28378,73.7433,64,NA,NA,NA,NA,Hydroxypyromorphite,00-086-0236
1.27234,74.518,1,NA,NA,NA,NA,Hydroxypyromorphite,00-086-0236
1.25845,75.4832,1,NA,NA,NA,NA,Hydroxypyromorphite,00-086-0236
1.23767,76.98,2,NA,NA,NA,NA,Hydroxypyromorphite,00-086-0236
1.23324,77.3077,24,NA,NA,NA,NA,Hydroxypyromorphite,00-086-0236
1.23093,77.4798,14,NA,NA,NA,NA,Hydroxypyromorphite,00-086-0236
1.23093,77.4798,14,NA,NA,NA,NA,Hydroxypyromorphite,00-086-0236
1.22487,77.9354,7,NA,NA,NA,NA,Hydroxypyromorphite,00-086-0236
1.22167,78.1784,5,NA,NA,NA,NA,Hydroxypyromorphite,00-086-0236
1.21835,78.4323,19,NA,NA,NA,NA,Hydroxypyromorphite,00-086-0236
1.20443,79.5173,1,NA,NA,NA,NA,Hydroxypyromorphite,00-086-0236
1.20046,79.8329,19,NA,NA,NA,NA,Hydroxypyromorphite,00-086-0236
1.19742,80.0765,24,NA,NA,NA,NA,Hydroxypyromorphite,00-086-0236
1.18378,81.1905,18,NA,NA,NA,NA,Hydroxypyromorphite,00-086-0236
1.1828,81.2719,17,NA,NA,NA,NA,Hydroxypyromorphite,00-086-0236
1.17037,82.3205,2,NA,NA,NA,NA,Hydroxypyromorphite,00-086-0236
1.17037,82.3205,2,NA,NA,NA,NA,Hydroxypyromorphite,00-086-0236
1.15955,83.2586,22,NA,NA,NA,NA,Hydroxypyromorphite,00-086-0236
1.153,83.8385,10,NA,NA,NA,NA,Hydroxypyromorphite,00-086-0236
1.13511,85.4705,1,NA,NA,NA,NA,Hydroxypyromorphite,00-086-0236
1.1317,85.7899,12,NA,NA,NA,NA,Hydroxypyromorphite,00-086-0236
1.12878,86.0657,6,NA,NA,NA,NA,Hydroxypyromorphite,00-086-0236
1.12016,86.8917,1,NA,NA,NA,NA,Hydroxypyromorphite,00-086-0236
1.11878,87.0257,1,NA,NA,NA,NA,Hydroxypyromorphite,00-086-0236
1.1062,88.2693,12,NA,NA,NA,NA,Hydroxypyromorphite,00-086-0236
1.10383,88.5083,7,NA,NA,NA,NA,Hydroxypyromorphite,00-086-0236
1.10217,88.6765,6,NA,NA,NA,NA,Hydroxypyromorphite,00-086-0236
1.09705,89.2003,9,NA,NA,NA,NA,Hydroxypyromorphite,00-086-0236
1.09474,89.439,5,NA,NA,NA,NA,Hydroxypyromorphite,00-086-0236
1.09474,89.439,5,NA,NA,NA,NA,Hydroxypyromorphite,00-086-0236